# Emission @ 500 nm [W*m^-2*sr^-1*nm^-1]
# Column format:
# Emission angle [deg]	C+	C+.s	C+.p	
0.000000E0	0.000000E0	0.000000E0	0.000000E0
4.517588E-1	8.289245E-5	0.000000E0	8.289245E-5
9.035176E-1	3.315392E-4	0.000000E0	3.315392E-4
1.355276E0	7.458484E-4	0.000000E0	7.458484E-4
1.807035E0	1.325668E-3	0.000000E0	1.325668E-3
2.258794E0	2.070783E-3	0.000000E0	2.070783E-3
2.710553E0	2.980923E-3	0.000000E0	2.980923E-3
3.162312E0	4.055753E-3	0.000000E0	4.055753E-3
3.614070E0	5.294883E-3	0.000000E0	5.294883E-3
4.065829E0	6.697865E-3	0.000000E0	6.697865E-3
4.517588E0	8.264194E-3	0.000000E0	8.264194E-3
4.969347E0	9.993311E-3	0.000000E0	9.993311E-3
5.421106E0	1.188460E-2	0.000000E0	1.188460E-2
5.872864E0	1.393741E-2	0.000000E0	1.393741E-2
6.324623E0	1.615101E-2	0.000000E0	1.615101E-2
6.776382E0	1.852464E-2	0.000000E0	1.852464E-2
7.228141E0	2.105751E-2	0.000000E0	2.105751E-2
7.679899E0	2.374875E-2	0.000000E0	2.374875E-2
8.131658E0	2.659748E-2	0.000000E0	2.659748E-2
8.583417E0	2.960278E-2	0.000000E0	2.960278E-2
9.035176E0	3.276367E-2	0.000000E0	3.276367E-2
9.486935E0	3.607918E-2	0.000000E0	3.607918E-2
9.938693E0	3.954828E-2	0.000000E0	3.954828E-2
1.039045E1	4.316993E-2	0.000000E0	4.316993E-2
1.084221E1	4.694307E-2	0.000000E0	4.694307E-2
1.129397E1	5.086664E-2	0.000000E0	5.086664E-2
1.174573E1	5.493954E-2	0.000000E0	5.493954E-2
1.219749E1	5.916070E-2	0.000000E0	5.916070E-2
1.264925E1	6.352902E-2	0.000000E0	6.352902E-2
1.310101E1	6.804345E-2	0.000000E0	6.804345E-2
1.355276E1	7.270292E-2	0.000000E0	7.270292E-2
1.400452E1	7.750639E-2	0.000000E0	7.750639E-2
1.445628E1	8.245286E-2	0.000000E0	8.245286E-2
1.490804E1	8.754136E-2	0.000000E0	8.754136E-2
1.535980E1	9.277099E-2	0.000000E0	9.277099E-2
1.581156E1	9.814087E-2	0.000000E0	9.814087E-2
1.626332E1	1.036502E-1	0.000000E0	1.036502E-1
1.671508E1	1.092983E-1	0.000000E0	1.092983E-1
1.716683E1	1.150846E-1	0.000000E0	1.150846E-1
1.761859E1	1.210084E-1	0.000000E0	1.210084E-1
1.807035E1	1.270695E-1	0.000000E0	1.270695E-1
1.852211E1	1.332677E-1	0.000000E0	1.332677E-1
1.897387E1	1.396027E-1	0.000000E0	1.396027E-1
1.942563E1	1.460747E-1	0.000000E0	1.460747E-1
1.987739E1	1.526839E-1	0.000000E0	1.526839E-1
2.032915E1	1.594309E-1	0.000000E0	1.594309E-1
2.078090E1	1.663165E-1	0.000000E0	1.663165E-1
2.123266E1	1.733416E-1	0.000000E0	1.733416E-1
2.168442E1	1.805076E-1	0.000000E0	1.805076E-1
2.213618E1	1.878162E-1	0.000000E0	1.878162E-1
2.258794E1	1.952694E-1	0.000000E0	1.952694E-1
2.303970E1	2.028699E-1	0.000000E0	2.028699E-1
2.349146E1	2.106205E-1	0.000000E0	2.106205E-1
2.394322E1	2.185248E-1	0.000000E0	2.185248E-1
2.439497E1	2.265870E-1	0.000000E0	2.265870E-1
2.484673E1	2.348119E-1	0.000000E0	2.348119E-1
2.529849E1	2.432051E-1	0.000000E0	2.432051E-1
2.575025E1	2.517730E-1	0.000000E0	2.517730E-1
2.620201E1	2.605231E-1	0.000000E0	2.605231E-1
2.665377E1	2.694640E-1	0.000000E0	2.694640E-1
2.710553E1	2.786054E-1	0.000000E0	2.786054E-1
2.755729E1	2.879585E-1	0.000000E0	2.879585E-1
2.800905E1	2.975361E-1	0.000000E0	2.975361E-1
2.846080E1	3.073529E-1	0.000000E0	3.073529E-1
2.891256E1	3.174257E-1	0.000000E0	3.174257E-1
2.936432E1	3.277737E-1	0.000000E0	3.277737E-1
2.981608E1	3.384191E-1	0.000000E0	3.384191E-1
3.026784E1	3.493870E-1	0.000000E0	3.493870E-1
3.071960E1	3.607068E-1	0.000000E0	3.607068E-1
3.117136E1	3.724123E-1	0.000000E0	3.724123E-1
3.162312E1	3.845423E-1	0.000000E0	3.845423E-1
3.207487E1	3.971425E-1	0.000000E0	3.971425E-1
3.252663E1	4.102659E-1	0.000000E0	4.102659E-1
3.297839E1	4.239747E-1	0.000000E0	4.239747E-1
3.343015E1	4.383424E-1	0.000000E0	4.383424E-1
3.388191E1	4.534562E-1	0.000000E0	4.534562E-1
3.433367E1	4.694205E-1	0.000000E0	4.694205E-1
3.478543E1	4.863609E-1	0.000000E0	4.863609E-1
3.523719E1	5.044304E-1	0.000000E0	5.044304E-1
3.568894E1	5.238171E-1	0.000000E0	5.238171E-1
3.614070E1	5.447552E-1	0.000000E0	5.447552E-1
3.659246E1	5.675401E-1	0.000000E0	5.675401E-1
3.704422E1	5.925509E-1	0.000000E0	5.925509E-1
3.749598E1	6.202835E-1	0.000000E0	6.202835E-1
3.794774E1	6.514016E-1	0.000000E0	6.514016E-1
3.839950E1	6.868188E-1	0.000000E0	6.868188E-1
3.885126E1	7.278370E-1	0.000000E0	7.278370E-1
3.930302E1	7.763950E-1	0.000000E0	7.763950E-1
3.975477E1	8.355527E-1	0.000000E0	8.355527E-1
4.020653E1	9.105436E-1	0.000000E0	9.105436E-1
4.065829E1	1.011456E0	0.000000E0	1.011456E0
4.111005E1	1.162082E0	0.000000E0	1.162082E0
4.156181E1	1.450507E0	0.000000E0	1.450507E0
4.201357E1	2.439072E0	0.000000E0	2.439072E0
4.246533E1	2.580388E0	0.000000E0	2.580388E0
4.291709E1	2.633840E0	0.000000E0	2.633840E0
4.336884E1	2.657081E0	0.000000E0	2.657081E0
4.382060E1	2.665663E0	0.000000E0	2.665663E0
4.427236E1	2.666147E0	0.000000E0	2.666147E0
4.472412E1	2.661841E0	0.000000E0	2.661841E0
4.517588E1	2.654586E0	0.000000E0	2.654586E0
4.562764E1	2.645467E0	0.000000E0	2.645467E0
4.607940E1	2.635150E0	0.000000E0	2.635150E0
4.653116E1	2.624052E0	0.000000E0	2.624052E0
4.698291E1	2.612438E0	0.000000E0	2.612438E0
4.743467E1	2.600472E0	0.000000E0	2.600472E0
4.788643E1	2.588257E0	0.000000E0	2.588257E0
4.833819E1	2.575853E0	0.000000E0	2.575853E0
4.878995E1	2.563291E0	0.000000E0	2.563291E0
4.924171E1	2.550582E0	0.000000E0	2.550582E0
4.969347E1	2.537724E0	0.000000E0	2.537724E0
5.014523E1	2.524707E0	0.000000E0	2.524707E0
5.059698E1	2.511513E0	0.000000E0	2.511513E0
5.104874E1	2.498121E0	0.000000E0	2.498121E0
5.150050E1	2.484508E0	0.000000E0	2.484508E0
5.195226E1	2.470647E0	0.000000E0	2.470647E0
5.240402E1	2.456512E0	0.000000E0	2.456512E0
5.285578E1	2.442076E0	0.000000E0	2.442076E0
5.330754E1	2.427313E0	0.000000E0	2.427313E0
5.375930E1	2.412194E0	0.000000E0	2.412194E0
5.421106E1	2.396695E0	0.000000E0	2.396695E0
5.466281E1	2.380788E0	0.000000E0	2.380788E0
5.511457E1	2.364449E0	0.000000E0	2.364449E0
5.556633E1	2.347652E0	0.000000E0	2.347652E0
5.601809E1	2.330375E0	0.000000E0	2.330375E0
5.646985E1	2.312593E0	0.000000E0	2.312593E0
5.692161E1	2.294285E0	0.000000E0	2.294285E0
5.737337E1	2.275428E0	0.000000E0	2.275428E0
5.782513E1	2.256001E0	0.000000E0	2.256001E0
5.827688E1	2.235986E0	0.000000E0	2.235986E0
5.872864E1	2.215361E0	0.000000E0	2.215361E0
5.918040E1	2.194110E0	0.000000E0	2.194110E0
5.963216E1	2.172214E0	0.000000E0	2.172214E0
6.008392E1	2.149657E0	0.000000E0	2.149657E0
6.053568E1	2.126423E0	0.000000E0	2.126423E0
6.098744E1	2.102498E0	0.000000E0	2.102498E0
6.143920E1	2.077867E0	0.000000E0	2.077867E0
6.189095E1	2.052519E0	0.000000E0	2.052519E0
6.234271E1	2.026441E0	0.000000E0	2.026441E0
6.279447E1	1.999623E0	0.000000E0	1.999623E0
6.324623E1	1.972055E0	0.000000E0	1.972055E0
6.369799E1	1.943731E0	0.000000E0	1.943731E0
6.414975E1	1.914643E0	0.000000E0	1.914643E0
6.460151E1	1.884786E0	0.000000E0	1.884786E0
6.505327E1	1.854158E0	0.000000E0	1.854158E0
6.550503E1	1.822754E0	0.000000E0	1.822754E0
6.595678E1	1.790577E0	0.000000E0	1.790577E0
6.640854E1	1.757627E0	0.000000E0	1.757627E0
6.686030E1	1.723907E0	0.000000E0	1.723907E0
6.731206E1	1.689424E0	0.000000E0	1.689424E0
6.776382E1	1.654186E0	0.000000E0	1.654186E0
6.821558E1	1.618202E0	0.000000E0	1.618202E0
6.866734E1	1.581485E0	0.000000E0	1.581485E0
6.911910E1	1.544051E0	0.000000E0	1.544051E0
6.957085E1	1.505917E0	0.000000E0	1.505917E0
7.002261E1	1.467105E0	0.000000E0	1.467105E0
7.047437E1	1.427637E0	0.000000E0	1.427637E0
7.092613E1	1.387542E0	0.000000E0	1.387542E0
7.137789E1	1.346849E0	0.000000E0	1.346849E0
7.182965E1	1.305592E0	0.000000E0	1.305592E0
7.228141E1	1.263808E0	0.000000E0	1.263808E0
7.273317E1	1.221539E0	0.000000E0	1.221539E0
7.318492E1	1.178828E0	0.000000E0	1.178828E0
7.363668E1	1.135724E0	0.000000E0	1.135724E0
7.408844E1	1.092280E0	0.000000E0	1.092280E0
7.454020E1	1.048553E0	0.000000E0	1.048553E0
7.499196E1	1.004602E0	0.000000E0	1.004602E0
7.544372E1	9.604931E-1	0.000000E0	9.604931E-1
7.589548E1	9.162945E-1	0.000000E0	9.162945E-1
7.634724E1	8.720792E-1	0.000000E0	8.720792E-1
7.679899E1	8.279243E-1	0.000000E0	8.279243E-1
7.725075E1	7.839105E-1	0.000000E0	7.839105E-1
7.770251E1	7.401225E-1	0.000000E0	7.401225E-1
7.815427E1	6.966489E-1	0.000000E0	6.966489E-1
7.860603E1	6.535813E-1	0.000000E0	6.535813E-1
7.905779E1	6.110149E-1	0.000000E0	6.110149E-1
7.950955E1	5.690476E-1	0.000000E0	5.690476E-1
7.996131E1	5.277801E-1	0.000000E0	5.277801E-1
8.041307E1	4.873151E-1	0.000000E0	4.873151E-1
8.086482E1	4.477573E-1	0.000000E0	4.477573E-1
8.131658E1	4.092126E-1	0.000000E0	4.092126E-1
8.176834E1	3.717878E-1	0.000000E0	3.717878E-1
8.222010E1	3.355899E-1	0.000000E0	3.355899E-1
8.267186E1	3.007257E-1	0.000000E0	3.007257E-1
8.312362E1	2.673010E-1	0.000000E0	2.673010E-1
8.357538E1	2.354200E-1	0.000000E0	2.354200E-1
8.402714E1	2.051847E-1	0.000000E0	2.051847E-1
8.447889E1	1.766943E-1	0.000000E0	1.766943E-1
8.493065E1	1.500441E-1	0.000000E0	1.500441E-1
8.538241E1	1.253253E-1	0.000000E0	1.253253E-1
8.583417E1	1.026241E-1	0.000000E0	1.026241E-1
8.628593E1	8.202109E-2	0.000000E0	8.202109E-2
8.673769E1	6.359040E-2	0.000000E0	6.359040E-2
8.718945E1	4.739941E-2	0.000000E0	4.739941E-2
8.764121E1	3.350800E-2	0.000000E0	3.350800E-2
8.809296E1	2.196812E-2	0.000000E0	2.196812E-2
8.854472E1	1.282327E-2	0.000000E0	1.282327E-2
8.899648E1	6.108214E-3	0.000000E0	6.108214E-3
8.944824E1	1.848595E-3	0.000000E0	1.848595E-3
8.990000E1	6.074971E-5	0.000000E0	6.074971E-5
